/absorption data for Si
/from Martin A. Green / Prog Photovolt Res Appl.30, 164–179 (2022)
/lambda[nm]	alfa[m^-1]
250  1.840E+08
260  1.973E+08
270  2.181E+08
280  2.371E+08
290  2.300E+08
300  1.774E+08
310  1.471E+08
320  1.302E+08
330  1.185E+08
340  1.104E+08
350  1.056E+08
360  1.034E+08
370  7.134E+07
380  3.047E+07
390  1.462E+07
400  9.679E+06
410  6.860E+06
420  5.183E+06
430  3.951E+06
440  3.119E+06
450  2.643E+06
460  2.204E+06
470  1.850E+06
480  1.569E+06
490  1.344E+06
500  1.159E+06
510  1.013E+06
520  8.984E+05
530  8.045E+05
540  7.231E+05
550  6.530E+05
560  5.949E+05
570  5.423E+05
580  4.970E+05
590  4.599E+05
600  4.227E+05
610  3.911E+05
620  3.622E+05
630  3.353E+05
640  3.106E+05
650  2.882E+05
660  2.674E+05
670  2.481E+05
680  2.299E+05
690  2.129E+05
700  1.972E+05
710  1.823E+05
720  1.684E+05
730  1.554E+05
740  1.432E+05
750  1.319E+05
760  1.213E+05
770  1.115E+05
780  1.022E+05
790  9.363E+04
800  8.573E+04
810  7.828E+04
820  7.135E+04
830  6.494E+04
840  5.892E+04
850  5.332E+04
860  4.811E+04
870  4.331E+04
880  3.887E+04
890  3.471E+04
900  3.091E+04
910  2.739E+04
920  2.413E+04
930  2.103E+04
940  1.846E+04
950  1.598E+04
960  1.369E+04
970  1.163E+04
980  9.810E+03
990  8.160E+03
1000  6.682E+03
1010  5.380E+03
1020  4.255E+03
1030  3.241E+03
1040  2.418E+03
1050  1.762E+03
1060  1.253E+03
1070  9.165E+02
1080  7.010E+02
1090  5.313E+02
1100  4.039E+02
1110  3.046E+02
1120  2.268E+02
1130  1.637E+02
1140  1.138E+02
1150  7.491E+01
1160  4.583E+01
1170  2.420E+01
1180  7.638E+00
1190  3.325E+00
1200  2.016E+00
1210  1.196E+00
1220  7.339E-01
1230  4.204E-01
1240  2.184E-01
1250  9.095E-02
1260  3.450E-02
1270  1.903E-02
1280  1.142E-02
1290  6.889E-03
1300  4.329E-03
1310  2.589E-03
1320  1.500E-03
1330  7.560E-04
1340  3.357E-04
1350  1.624E-04
1360  8.590E-05
1370  5.198E-05
1380  3.277E-05
1390  1.942E-05
1400  1.217E-05
1410  6.952E-06
1420  4.408E-06
1430  2.142E-06
1440  1.323E-06
1450  8.976E-07
