/absorption data for Si
/from Martin A. Green / Prog Photovolt Res Appl.30, 164–179 (2022)
/lambda[nm]	alfa[m^-1]
250  1.839E+08
260  1.971E+08
270  2.177E+08
280  2.366E+08
290  2.301E+08
300  1.777E+08
310  1.474E+08
320  1.303E+08
330  1.186E+08
340  1.104E+08
350  1.056E+08
360  1.033E+08
370  7.155E+07
380  3.066E+07
390  1.488E+07
400  9.898E+06
410  7.006E+06
420  5.286E+06
430  4.029E+06
440  3.179E+06
450  2.694E+06
460  2.247E+06
470  1.887E+06
480  1.601E+06
490  1.372E+06
500  1.183E+06
510  1.034E+06
520  9.181E+05
530  8.227E+05
540  7.394E+05
550  6.678E+05
560  6.088E+05
570  5.549E+05
580  5.086E+05
590  4.706E+05
600  4.326E+05
610  4.005E+05
620  3.709E+05
630  3.434E+05
640  3.181E+05
650  2.951E+05
660  2.738E+05
670  2.542E+05
680  2.356E+05
690  2.182E+05
700  2.022E+05
710  1.869E+05
720  1.726E+05
730  1.593E+05
740  1.469E+05
750  1.352E+05
760  1.244E+05
770  1.143E+05
780  1.048E+05
790  9.607E+04
800  8.809E+04
810  8.049E+04
820  7.342E+04
830  6.691E+04
840  6.075E+04
850  5.501E+04
860  4.967E+04
870  4.477E+04
880  4.024E+04
890  3.596E+04
900  3.206E+04
910  2.845E+04
920  2.508E+04
930  2.188E+04
940  1.925E+04
950  1.670E+04
960  1.434E+04
970  1.222E+04
980  1.034E+04
990  8.639E+03
1000  7.107E+03
1010  5.751E+03
1020  4.572E+03
1030  3.499E+03
1040  2.625E+03
1050  1.933E+03
1060  1.384E+03
1070  1.019E+03
1080  7.820E+02
1090  5.947E+02
1100  4.551E+02
1110  3.444E+02
1120  2.574E+02
1130  1.864E+02
1140  1.304E+02
1150  8.644E+01
1160  5.361E+01
1170  2.891E+01
1180  9.504E+00
1190  4.207E+00
1200  2.569E+00
1210  1.550E+00
1220  9.576E-01
1230  5.545E-01
1240  2.891E-01
1250  1.220E-01
1260  4.660E-02
1270  2.597E-02
1280  1.575E-02
1290  9.692E-03
1300  6.195E-03
1310  3.768E-03
1320  2.230E-03
1330  1.147E-03
1340  5.233E-04
1350  2.567E-04
1360  1.362E-04
1370  8.270E-05
1380  5.231E-05
1390  3.111E-05
1400  1.963E-05
1410  1.129E-05
1420  7.206E-06
1430  3.527E-06
1440  2.194E-06
1450  1.498E-06
