/absorption data for Si
/from Martin A. Green / Prog Photovolt Res Appl.30, 164–179 (2022)
/lambda[nm]	alfa[m^-1]
250  1.839E+08
260  1.971E+08
270  2.175E+08
280  2.365E+08
290  2.302E+08
300  1.777E+08
310  1.475E+08
320  1.304E+08
330  1.186E+08
340  1.104E+08
350  1.056E+08
360  1.033E+08
370  7.160E+07
380  3.072E+07
390  1.495E+07
400  9.961E+06
410  7.047E+06
420  5.316E+06
430  4.052E+06
440  3.196E+06
450  2.709E+06
460  2.260E+06
470  1.897E+06
480  1.610E+06
490  1.380E+06
500  1.190E+06
510  1.040E+06
520  9.237E+05
530  8.279E+05
540  7.441E+05
550  6.721E+05
560  6.127E+05
570  5.585E+05
580  5.119E+05
590  4.737E+05
600  4.354E+05
610  4.032E+05
620  3.734E+05
630  3.457E+05
640  3.202E+05
650  2.971E+05
660  2.756E+05
670  2.560E+05
680  2.373E+05
690  2.197E+05
700  2.036E+05
710  1.882E+05
720  1.739E+05
730  1.605E+05
740  1.479E+05
750  1.362E+05
760  1.252E+05
770  1.151E+05
780  1.055E+05
790  9.677E+04
800  8.877E+04
810  8.113E+04
820  7.401E+04
830  6.748E+04
840  6.128E+04
850  5.550E+04
860  5.012E+04
870  4.520E+04
880  4.063E+04
890  3.631E+04
900  3.240E+04
910  2.876E+04
920  2.536E+04
930  2.213E+04
940  1.948E+04
950  1.691E+04
960  1.453E+04
970  1.239E+04
980  1.050E+04
990  8.779E+03
1000  7.232E+03
1010  5.859E+03
1020  4.666E+03
1030  3.576E+03
1040  2.687E+03
1050  1.984E+03
1060  1.423E+03
1070  1.050E+03
1080  8.064E+02
1090  6.139E+02
1100  4.707E+02
1110  3.565E+02
1120  2.667E+02
1130  1.933E+02
1140  1.355E+02
1150  9.000E+01
1160  5.603E+01
1170  3.040E+01
1180  1.011E+01
1190  4.496E+00
1200  2.750E+00
1210  1.668E+00
1220  1.032E+00
1230  5.995E-01
1240  3.128E-01
1250  1.325E-01
1260  5.072E-02
1270  2.834E-02
1280  1.724E-02
1290  1.067E-02
1300  6.853E-03
1310  4.188E-03
1320  2.493E-03
1330  1.290E-03
1340  5.930E-04
1350  2.920E-04
1360  1.551E-04
1370  9.425E-05
1380  5.967E-05
1390  3.552E-05
1400  2.245E-05
1410  1.294E-05
1420  8.275E-06
1430  4.059E-06
1440  2.530E-06
1450  1.731E-06
