/absorption data for Si
/from Martin A. Green / Prog Photovolt Res Appl.30, 164–179 (2022)
/lambda[nm]	alfa[m^-1]
250  1.838E+08
260  1.970E+08
270  2.175E+08
280  2.364E+08
290  2.302E+08
300  1.778E+08
310  1.475E+08
320  1.304E+08
330  1.186E+08
340  1.105E+08
350  1.056E+08
360  1.033E+08
370  7.163E+07
380  3.074E+07
390  1.499E+07
400  9.992E+06
410  7.068E+06
420  5.330E+06
430  4.063E+06
440  3.205E+06
450  2.716E+06
460  2.266E+06
470  1.902E+06
480  1.615E+06
490  1.384E+06
500  1.194E+06
510  1.044E+06
520  9.265E+05
530  8.305E+05
540  7.465E+05
550  6.742E+05
560  6.147E+05
570  5.603E+05
580  5.136E+05
590  4.752E+05
600  4.368E+05
610  4.046E+05
620  3.746E+05
630  3.468E+05
640  3.213E+05
650  2.981E+05
660  2.765E+05
670  2.569E+05
680  2.381E+05
690  2.204E+05
700  2.043E+05
710  1.889E+05
720  1.745E+05
730  1.610E+05
740  1.484E+05
750  1.367E+05
760  1.257E+05
770  1.155E+05
780  1.059E+05
790  9.712E+04
800  8.910E+04
810  8.144E+04
820  7.430E+04
830  6.776E+04
840  6.154E+04
850  5.574E+04
860  5.034E+04
870  4.541E+04
880  4.083E+04
890  3.649E+04
900  3.256E+04
910  2.891E+04
920  2.550E+04
930  2.226E+04
940  1.960E+04
950  1.701E+04
960  1.463E+04
970  1.248E+04
980  1.058E+04
990  8.849E+03
1000  7.295E+03
1010  5.914E+03
1020  4.713E+03
1030  3.614E+03
1040  2.718E+03
1050  2.009E+03
1060  1.443E+03
1070  1.065E+03
1080  8.189E+02
1090  6.237E+02
1100  4.787E+02
1110  3.627E+02
1120  2.714E+02
1130  1.969E+02
1140  1.381E+02
1150  9.182E+01
1160  5.728E+01
1170  3.117E+01
1180  1.042E+01
1190  4.647E+00
1200  2.845E+00
1210  1.729E+00
1220  1.071E+00
1230  6.232E-01
1240  3.253E-01
1250  1.381E-01
1260  5.290E-02
1270  2.960E-02
1280  1.803E-02
1290  1.119E-02
1300  7.206E-03
1310  4.414E-03
1320  2.635E-03
1330  1.367E-03
1340  6.311E-04
1350  3.113E-04
1360  1.654E-04
1370  1.006E-04
1380  6.371E-05
1390  3.794E-05
1400  2.401E-05
1410  1.385E-05
1420  8.865E-06
1430  4.353E-06
1440  2.716E-06
1450  1.860E-06
