/absorption data for Si
/from Martin A. Green / Prog Photovolt Res Appl.30, 164–179 (2022)
/lambda[nm]	alfa[m^-1]
250  1.838E+08
260  1.969E+08
270  2.172E+08
280  2.361E+08
290  2.303E+08
300  1.780E+08
310  1.477E+08
320  1.305E+08
330  1.187E+08
340  1.105E+08
350  1.056E+08
360  1.032E+08
370  7.175E+07
380  3.085E+07
390  1.514E+07
400  1.012E+07
410  7.151E+06
420  5.389E+06
430  4.108E+06
440  3.239E+06
450  2.745E+06
460  2.291E+06
470  1.923E+06
480  1.633E+06
490  1.399E+06
500  1.208E+06
510  1.056E+06
520  9.378E+05
530  8.410E+05
540  7.558E+05
550  6.826E+05
560  6.227E+05
570  5.676E+05
580  5.202E+05
590  4.813E+05
600  4.425E+05
610  4.100E+05
620  3.796E+05
630  3.515E+05
640  3.256E+05
650  3.020E+05
660  2.802E+05
670  2.604E+05
680  2.413E+05
690  2.234E+05
700  2.072E+05
710  1.915E+05
720  1.769E+05
730  1.633E+05
740  1.505E+05
750  1.386E+05
760  1.274E+05
770  1.171E+05
780  1.074E+05
790  9.853E+04
800  9.046E+04
810  8.271E+04
820  7.549E+04
830  6.889E+04
840  6.259E+04
850  5.672E+04
860  5.124E+04
870  4.625E+04
880  4.162E+04
890  3.722E+04
900  3.323E+04
910  2.953E+04
920  2.605E+04
930  2.276E+04
940  2.006E+04
950  1.744E+04
960  1.501E+04
970  1.283E+04
980  1.089E+04
990  9.134E+03
1000  7.550E+03
1010  6.137E+03
1020  4.906E+03
1030  3.772E+03
1040  2.845E+03
1050  2.115E+03
1060  1.525E+03
1070  1.130E+03
1080  8.702E+02
1090  6.640E+02
1100  5.115E+02
1110  3.883E+02
1120  2.912E+02
1130  2.116E+02
1140  1.490E+02
1150  9.943E+01
1160  6.249E+01
1170  3.440E+01
1180  1.177E+01
1190  5.297E+00
1200  3.256E+00
1210  1.997E+00
1220  1.242E+00
1230  7.269E-01
1240  3.802E-01
1250  1.626E-01
1260  6.253E-02
1270  3.519E-02
1280  2.156E-02
1290  1.353E-02
1300  8.795E-03
1310  5.438E-03
1320  3.285E-03
1330  1.724E-03
1340  8.078E-04
1350  4.015E-04
1360  2.137E-04
1370  1.302E-04
1380  8.264E-05
1390  4.930E-05
1400  3.131E-05
1410  1.813E-05
1420  1.165E-05
1430  5.745E-06
1440  3.597E-06
1450  2.473E-06
