/absorption data for Si
/from Martin A. Green / Prog Photovolt Res Appl.30, 164–179 (2022)
/lambda[nm]	alfa[m^-1]
250  1.838E+08
260  1.969E+08
270  2.171E+08
280  2.360E+08
290  2.303E+08
300  1.780E+08
310  1.477E+08
320  1.305E+08
330  1.187E+08
340  1.105E+08
350  1.056E+08
360  1.032E+08
370  7.177E+07
380  3.088E+07
390  1.517E+07
400  1.015E+07
410  7.172E+06
420  5.404E+06
430  4.119E+06
440  3.247E+06
450  2.752E+06
460  2.297E+06
470  1.928E+06
480  1.638E+06
490  1.403E+06
500  1.211E+06
510  1.059E+06
520  9.406E+05
530  8.436E+05
540  7.582E+05
550  6.847E+05
560  6.246E+05
570  5.694E+05
580  5.218E+05
590  4.829E+05
600  4.439E+05
610  4.113E+05
620  3.808E+05
630  3.526E+05
640  3.266E+05
650  3.030E+05
660  2.811E+05
670  2.613E+05
680  2.421E+05
690  2.242E+05
700  2.079E+05
710  1.922E+05
720  1.776E+05
730  1.639E+05
740  1.510E+05
750  1.391E+05
760  1.279E+05
770  1.175E+05
780  1.077E+05
790  9.888E+04
800  9.080E+04
810  8.303E+04
820  7.579E+04
830  6.918E+04
840  6.286E+04
850  5.696E+04
860  5.147E+04
870  4.647E+04
880  4.182E+04
890  3.740E+04
900  3.340E+04
910  2.969E+04
920  2.619E+04
930  2.288E+04
940  2.018E+04
950  1.754E+04
960  1.511E+04
970  1.292E+04
980  1.097E+04
990  9.206E+03
1000  7.614E+03
1010  6.194E+03
1020  4.955E+03
1030  3.812E+03
1040  2.877E+03
1050  2.142E+03
1060  1.546E+03
1070  1.147E+03
1080  8.834E+02
1090  6.744E+02
1100  5.200E+02
1110  3.950E+02
1120  2.963E+02
1130  2.154E+02
1140  1.519E+02
1150  1.014E+02
1160  6.386E+01
1170  3.526E+01
1180  1.213E+01
1190  5.472E+00
1200  3.366E+00
1210  2.070E+00
1220  1.289E+00
1230  7.552E-01
1240  3.952E-01
1250  1.694E-01
1260  6.517E-02
1270  3.673E-02
1280  2.253E-02
1290  1.419E-02
1300  9.241E-03
1310  5.727E-03
1320  3.470E-03
1330  1.826E-03
1340  8.588E-04
1350  4.276E-04
1360  2.277E-04
1370  1.388E-04
1380  8.814E-05
1390  5.261E-05
1400  3.345E-05
1410  1.938E-05
1420  1.247E-05
1430  6.154E-06
1440  3.857E-06
1450  2.654E-06
