/absorption data for Si
/from Martin A. Green / Prog Photovolt Res Appl.30, 164–179 (2022)
/lambda[nm]	alfa[m^-1]
250  1.837E+08
260  1.967E+08
270  2.168E+08
280  2.356E+08
290  2.304E+08
300  1.782E+08
310  1.480E+08
320  1.306E+08
330  1.187E+08
340  1.105E+08
350  1.056E+08
360  1.031E+08
370  7.194E+07
380  3.104E+07
390  1.540E+07
400  1.034E+07
410  7.297E+06
420  5.491E+06
430  4.186E+06
440  3.298E+06
450  2.795E+06
460  2.335E+06
470  1.960E+06
480  1.666E+06
490  1.427E+06
500  1.232E+06
510  1.077E+06
520  9.575E+05
530  8.592E+05
540  7.722E+05
550  6.974E+05
560  6.366E+05
570  5.802E+05
580  5.318E+05
590  4.921E+05
600  4.523E+05
610  4.194E+05
620  3.883E+05
630  3.595E+05
640  3.330E+05
650  3.090E+05
660  2.867E+05
670  2.666E+05
680  2.470E+05
690  2.287E+05
700  2.123E+05
710  1.962E+05
720  1.812E+05
730  1.673E+05
740  1.542E+05
750  1.420E+05
760  1.305E+05
770  1.200E+05
780  1.100E+05
790  1.010E+05
800  9.284E+04
810  8.495E+04
820  7.758E+04
830  7.089E+04
840  6.445E+04
850  5.844E+04
860  5.283E+04
870  4.775E+04
880  4.303E+04
890  3.850E+04
900  3.442E+04
910  3.063E+04
920  2.703E+04
930  2.365E+04
940  2.089E+04
950  1.819E+04
960  1.570E+04
970  1.345E+04
980  1.146E+04
990  9.646E+03
1000  8.009E+03
1010  6.540E+03
1020  5.255E+03
1030  4.059E+03
1040  3.078E+03
1050  2.311E+03
1060  1.677E+03
1070  1.250E+03
1080  9.660E+02
1090  7.395E+02
1100  5.734E+02
1110  4.368E+02
1120  3.285E+02
1130  2.395E+02
1140  1.698E+02
1150  1.140E+02
1160  7.261E+01
1170  4.078E+01
1180  1.450E+01
1190  6.635E+00
1200  4.105E+00
1210  2.560E+00
1220  1.602E+00
1230  9.474E-01
1240  4.972E-01
1250  2.154E-01
1260  8.336E-02
1270  4.737E-02
1280  2.931E-02
1290  1.876E-02
1300  1.239E-02
1310  7.787E-03
1320  4.800E-03
1330  2.568E-03
1340  1.235E-03
1350  6.218E-04
1360  3.321E-04
1370  2.030E-04
1380  1.293E-04
1390  7.736E-05
1400  4.946E-05
1410  2.882E-05
1420  1.864E-05
1430  9.257E-06
1440  5.835E-06
1450  4.037E-06
