/absorption data for Si
/from Martin A. Green / Prog Photovolt Res Appl.30, 164–179 (2022)
/lambda[nm]	alfa[m^-1]
250  1.837E+08
260  1.967E+08
270  2.167E+08
280  2.355E+08
290  2.304E+08
300  1.783E+08
310  1.481E+08
320  1.306E+08
330  1.187E+08
340  1.105E+08
350  1.056E+08
360  1.031E+08
370  7.197E+07
380  3.106E+07
390  1.543E+07
400  1.037E+07
410  7.318E+06
420  5.506E+06
430  4.197E+06
440  3.306E+06
450  2.802E+06
460  2.341E+06
470  1.965E+06
480  1.670E+06
490  1.431E+06
500  1.236E+06
510  1.080E+06
520  9.603E+05
530  8.618E+05
540  7.745E+05
550  6.995E+05
560  6.385E+05
570  5.821E+05
580  5.335E+05
590  4.936E+05
600  4.538E+05
610  4.207E+05
620  3.895E+05
630  3.607E+05
640  3.341E+05
650  3.100E+05
660  2.876E+05
670  2.674E+05
680  2.478E+05
690  2.295E+05
700  2.130E+05
710  1.969E+05
720  1.819E+05
730  1.678E+05
740  1.547E+05
750  1.425E+05
760  1.310E+05
770  1.204E+05
780  1.103E+05
790  1.013E+05
800  9.318E+04
810  8.526E+04
820  7.788E+04
830  7.118E+04
840  6.471E+04
850  5.868E+04
860  5.306E+04
870  4.796E+04
880  4.323E+04
890  3.868E+04
900  3.459E+04
910  3.078E+04
920  2.718E+04
930  2.378E+04
940  2.101E+04
950  1.830E+04
960  1.580E+04
970  1.354E+04
980  1.154E+04
990  9.720E+03
1000  8.076E+03
1010  6.599E+03
1020  5.306E+03
1030  4.101E+03
1040  3.112E+03
1050  2.340E+03
1060  1.699E+03
1070  1.268E+03
1080  9.804E+02
1090  7.509E+02
1100  5.828E+02
1110  4.441E+02
1120  3.342E+02
1130  2.437E+02
1140  1.730E+02
1150  1.163E+02
1160  7.416E+01
1170  4.177E+01
1180  1.494E+01
1190  6.850E+00
1200  4.241E+00
1210  2.651E+00
1220  1.661E+00
1230  9.834E-01
1240  5.163E-01
1250  2.242E-01
1260  8.681E-02
1270  4.940E-02
1280  3.060E-02
1290  1.964E-02
1300  1.301E-02
1310  8.192E-03
1320  5.063E-03
1330  2.716E-03
1340  1.311E-03
1350  6.614E-04
1360  3.534E-04
1370  2.161E-04
1380  1.377E-04
1390  8.244E-05
1400  5.275E-05
1410  3.077E-05
1420  1.992E-05
1430  9.902E-06
1440  6.247E-06
1450  4.327E-06
