/absorption data for Si
/from Martin A. Green / Prog Photovolt Res Appl.30, 164–179 (2022)
/lambda[nm]	alfa[m^-1]
250  1.836E+08
260  1.967E+08
270  2.166E+08
280  2.355E+08
290  2.304E+08
300  1.783E+08
310  1.481E+08
320  1.306E+08
330  1.187E+08
340  1.105E+08
350  1.056E+08
360  1.031E+08
370  7.200E+07
380  3.109E+07
390  1.547E+07
400  1.040E+07
410  7.338E+06
420  5.521E+06
430  4.208E+06
440  3.315E+06
450  2.809E+06
460  2.347E+06
470  1.970E+06
480  1.675E+06
490  1.435E+06
500  1.239E+06
510  1.083E+06
520  9.631E+05
530  8.644E+05
540  7.769E+05
550  7.016E+05
560  6.405E+05
570  5.839E+05
580  5.351E+05
590  4.951E+05
600  4.552E+05
610  4.221E+05
620  3.908E+05
630  3.618E+05
640  3.352E+05
650  3.110E+05
660  2.885E+05
670  2.683E+05
680  2.487E+05
690  2.302E+05
700  2.137E+05
710  1.975E+05
720  1.825E+05
730  1.684E+05
740  1.552E+05
750  1.429E+05
760  1.314E+05
770  1.208E+05
780  1.107E+05
790  1.017E+05
800  9.352E+04
810  8.558E+04
820  7.818E+04
830  7.146E+04
840  6.498E+04
850  5.893E+04
860  5.329E+04
870  4.818E+04
880  4.343E+04
890  3.886E+04
900  3.476E+04
910  3.094E+04
920  2.732E+04
930  2.390E+04
940  2.112E+04
950  1.841E+04
960  1.590E+04
970  1.363E+04
980  1.162E+04
990  9.795E+03
1000  8.144E+03
1010  6.658E+03
1020  5.358E+03
1030  4.144E+03
1040  3.146E+03
1050  2.369E+03
1060  1.722E+03
1070  1.287E+03
1080  9.949E+02
1090  7.623E+02
1100  5.922E+02
1110  4.515E+02
1120  3.399E+02
1130  2.480E+02
1140  1.762E+02
1150  1.185E+02
1160  7.574E+01
1170  4.279E+01
1180  1.538E+01
1190  7.070E+00
1200  4.382E+00
1210  2.745E+00
1220  1.721E+00
1230  1.021E+00
1240  5.362E-01
1250  2.332E-01
1260  9.040E-02
1270  5.151E-02
1280  3.195E-02
1290  2.057E-02
1300  1.365E-02
1310  8.616E-03
1320  5.341E-03
1330  2.873E-03
1340  1.392E-03
1350  7.034E-04
1360  3.760E-04
1370  2.301E-04
1380  1.466E-04
1390  8.784E-05
1400  5.626E-05
1410  3.284E-05
1420  2.128E-05
1430  1.059E-05
1440  6.687E-06
1450  4.635E-06
