/absorption data for Si
/from Martin A. Green / Prog Photovolt Res Appl.30, 164–179 (2022)
/lambda[nm]	alfa[m^-1]
250  1.835E+08
260  1.965E+08
270  2.162E+08
280  2.349E+08
290  2.305E+08
300  1.786E+08
310  1.484E+08
320  1.308E+08
330  1.188E+08
340  1.105E+08
350  1.056E+08
360  1.030E+08
370  7.222E+07
380  3.129E+07
390  1.576E+07
400  1.065E+07
410  7.504E+06
420  5.637E+06
430  4.297E+06
440  3.382E+06
450  2.867E+06
460  2.397E+06
470  2.012E+06
480  1.711E+06
490  1.466E+06
500  1.267E+06
510  1.108E+06
520  9.856E+05
530  8.852E+05
540  7.956E+05
550  7.185E+05
560  6.564E+05
570  5.984E+05
580  5.484E+05
590  5.074E+05
600  4.665E+05
610  4.329E+05
620  4.008E+05
630  3.711E+05
640  3.438E+05
650  3.189E+05
660  2.959E+05
670  2.754E+05
680  2.552E+05
690  2.363E+05
700  2.195E+05
710  2.029E+05
720  1.874E+05
730  1.730E+05
740  1.594E+05
750  1.468E+05
760  1.350E+05
770  1.241E+05
780  1.137E+05
790  1.045E+05
800  9.626E+04
810  8.815E+04
820  8.058E+04
830  7.376E+04
840  6.712E+04
850  6.092E+04
860  5.512E+04
870  4.991E+04
880  4.505E+04
890  4.035E+04
900  3.614E+04
910  3.221E+04
920  2.846E+04
930  2.494E+04
940  2.209E+04
950  1.929E+04
960  1.671E+04
970  1.437E+04
980  1.230E+04
990  1.041E+04
1000  8.696E+03
1010  7.146E+03
1020  5.783E+03
1030  4.495E+03
1040  3.433E+03
1050  2.613E+03
1060  1.913E+03
1070  1.440E+03
1080  1.117E+03
1090  8.592E+02
1100  6.723E+02
1110  5.144E+02
1120  3.887E+02
1130  2.846E+02
1140  2.036E+02
1150  1.380E+02
1160  8.946E+01
1170  5.168E+01
1180  1.940E+01
1190  9.079E+00
1200  5.668E+00
1210  3.615E+00
1220  2.283E+00
1230  1.370E+00
1240  7.220E-01
1250  3.186E-01
1260  1.244E-01
1270  7.166E-02
1280  4.493E-02
1290  2.955E-02
1300  1.997E-02
1310  1.283E-02
1320  8.135E-03
1330  4.472E-03
1340  2.230E-03
1350  1.143E-03
1360  6.134E-04
1370  3.766E-04
1380  2.409E-04
1390  1.448E-04
1400  9.343E-05
1410  5.494E-05
1420  3.586E-05
1430  1.799E-05
1440  1.144E-05
1450  7.987E-06
