/absorption data for Si
/from Martin A. Green / Prog Photovolt Res Appl.30, 164–179 (2022)
/lambda[nm]	alfa[m^-1]
250  1.834E+08
260  1.963E+08
270  2.157E+08
280  2.344E+08
290  2.307E+08
300  1.789E+08
310  1.487E+08
320  1.309E+08
330  1.188E+08
340  1.105E+08
350  1.056E+08
360  1.029E+08
370  7.240E+07
380  3.147E+07
390  1.602E+07
400  1.087E+07
410  7.649E+06
420  5.739E+06
430  4.374E+06
440  3.441E+06
450  2.917E+06
460  2.440E+06
470  2.048E+06
480  1.743E+06
490  1.493E+06
500  1.292E+06
510  1.129E+06
520  1.005E+06
530  9.034E+05
540  8.119E+05
550  7.333E+05
560  6.703E+05
570  6.110E+05
580  5.600E+05
590  5.182E+05
600  4.763E+05
610  4.423E+05
620  4.095E+05
630  3.792E+05
640  3.513E+05
650  3.259E+05
660  3.023E+05
670  2.815E+05
680  2.609E+05
690  2.416E+05
700  2.245E+05
710  2.075E+05
720  1.917E+05
730  1.770E+05
740  1.631E+05
750  1.502E+05
760  1.381E+05
770  1.269E+05
780  1.163E+05
790  1.070E+05
800  9.866E+04
810  9.041E+04
820  8.269E+04
830  7.579E+04
840  6.901E+04
850  6.267E+04
860  5.674E+04
870  5.144E+04
880  4.649E+04
890  4.166E+04
900  3.736E+04
910  3.335E+04
920  2.948E+04
930  2.587E+04
940  2.295E+04
950  2.008E+04
960  1.744E+04
970  1.503E+04
980  1.290E+04
990  1.096E+04
1000  9.197E+03
1010  7.591E+03
1020  6.174E+03
1030  4.820E+03
1040  3.699E+03
1050  2.841E+03
1060  2.093E+03
1070  1.585E+03
1080  1.234E+03
1090  9.518E+02
1100  7.494E+02
1110  5.751E+02
1120  4.359E+02
1130  3.202E+02
1140  2.305E+02
1150  1.572E+02
1160  1.032E+02
1170  6.074E+01
1180  2.366E+01
1190  1.124E+01
1200  7.063E+00
1210  4.575E+00
1220  2.907E+00
1230  1.762E+00
1240  9.314E-01
1250  4.161E-01
1260  1.635E-01
1270  9.504E-02
1280  6.015E-02
1290  4.030E-02
1300  2.765E-02
1310  1.805E-02
1320  1.166E-02
1330  6.531E-03
1340  3.338E-03
1350  1.732E-03
1360  9.323E-04
1370  5.742E-04
1380  3.684E-04
1390  2.222E-04
1400  1.442E-04
1410  8.532E-05
1420  5.604E-05
1430  2.830E-05
1440  1.811E-05
1450  1.272E-05
