/absorption data for Si
/from Martin A. Green / Prog Photovolt Res Appl.30, 164–179 (2022)
/lambda[nm]	alfa[m^-1]
250  1.846E+08
260  1.984E+08
270  2.205E+08
280  2.399E+08
290  2.294E+08
300  1.758E+08
310  1.454E+08
320  1.295E+08
330  1.183E+08
340  1.103E+08
350  1.056E+08
360  1.039E+08
370  7.029E+07
380  2.950E+07
390  1.333E+07
400  8.217E+06
410  6.148E+06
420  4.678E+06
430  3.566E+06
440  2.825E+06
450  2.394E+06
460  1.989E+06
470  1.669E+06
480  1.411E+06
490  1.209E+06
500  1.038E+06
510  9.076E+05
520  8.023E+05
530  7.159E+05
540  6.434E+05
550  5.811E+05
560  5.275E+05
570  4.808E+05
580  4.407E+05
590  4.078E+05
600  3.748E+05
610  3.456E+05
620  3.200E+05
630  2.963E+05
640  2.745E+05
650  2.546E+05
660  2.362E+05
670  2.185E+05
680  2.025E+05
690  1.874E+05
700  1.730E+05
710  1.599E+05
720  1.477E+05
730  1.363E+05
740  1.257E+05
750  1.157E+05
760  1.064E+05
770  9.779E+04
780  8.963E+04
790  8.185E+04
800  7.442E+04
810  6.772E+04
820  6.150E+04
830  5.558E+04
840  5.025E+04
850  4.531E+04
860  4.074E+04
870  3.642E+04
880  3.246E+04
890  2.888E+04
900  2.554E+04
910  2.247E+04
920  1.973E+04
930  1.707E+04
940  1.483E+04
950  1.270E+04
960  1.072E+04
970  8.985E+03
980  7.445E+03
990  6.063E+03
1000  4.843E+03
1010  3.805E+03
1020  2.925E+03
1030  2.173E+03
1040  1.577E+03
1050  1.089E+03
1060  7.480E+02
1070  5.279E+02
1080  3.967E+02
1090  2.954E+02
1100  2.167E+02
1110  1.606E+02
1120  1.175E+02
1130  8.332E+01
1140  5.590E+01
1150  3.552E+01
1160  2.025E+01
1170  9.583E+00
1180  2.446E+00
1190  9.745E-01
1200  5.705E-01
1210  3.098E-01
1220  1.835E-01
1230  9.931E-02
1240  5.070E-02
1250  1.967E-02
1260  7.201E-03
1270  3.767E-03
1280  2.145E-03
1290  1.163E-03
1300  6.691E-04
1310  3.662E-04
1320  1.902E-04
1330  8.620E-05
1340  3.323E-05
1350  1.498E-05
1360  7.783E-06
1370  4.628E-06
1380  2.866E-06
1390  1.669E-06
1400  1.009E-06
1410  5.566E-07
1420  3.407E-07
1430  1.592E-07
1440  9.494E-08
1450  6.216E-08
