/absorption data for Si
/from Martin A. Green / Prog Photovolt Res Appl.30, 164–179 (2022)
/lambda[nm]	alfa[m^-1]
250  1.843E+08
260  1.978E+08
270  2.192E+08
280  2.384E+08
290  2.297E+08
300  1.766E+08
310  1.463E+08
320  1.299E+08
330  1.184E+08
340  1.104E+08
350  1.056E+08
360  1.036E+08
370  7.086E+07
380  3.002E+07
390  1.402E+07
400  9.178E+06
410  6.526E+06
420  4.946E+06
430  3.770E+06
440  2.981E+06
450  2.527E+06
460  2.103E+06
470  1.765E+06
480  1.495E+06
490  1.281E+06
500  1.102E+06
510  9.634E+05
520  8.532E+05
530  7.628E+05
540  6.856E+05
550  6.192E+05
560  5.632E+05
570  5.133E+05
580  4.705E+05
590  4.353E+05
600  4.002E+05
610  3.697E+05
620  3.423E+05
630  3.169E+05
640  2.936E+05
650  2.724E+05
660  2.527E+05
670  2.341E+05
680  2.170E+05
690  2.009E+05
700  1.858E+05
710  1.717E+05
720  1.586E+05
730  1.464E+05
740  1.349E+05
750  1.243E+05
760  1.142E+05
770  1.050E+05
780  9.625E+04
790  8.806E+04
800  8.038E+04
810  7.328E+04
820  6.668E+04
830  6.049E+04
840  5.480E+04
850  4.951E+04
860  4.460E+04
870  4.002E+04
880  3.580E+04
890  3.192E+04
900  2.833E+04
910  2.503E+04
920  2.201E+04
930  1.912E+04
940  1.670E+04
950  1.439E+04
960  1.224E+04
970  1.034E+04
980  8.651E+03
990  7.127E+03
1000  5.770E+03
1010  4.594E+03
1020  3.587E+03
1030  2.701E+03
1040  1.990E+03
1050  1.415E+03
1060  9.906E+02
1070  7.127E+02
1080  5.408E+02
1090  4.066E+02
1100  3.041E+02
1110  2.275E+02
1120  1.681E+02
1130  1.203E+02
1140  8.229E+01
1150  5.331E+01
1160  3.158E+01
1170  1.587E+01
1180  4.545E+00
1190  1.900E+00
1200  1.134E+00
1210  6.461E-01
1220  3.901E-01
1230  2.178E-01
1240  1.122E-01
1250  4.525E-02
1260  1.689E-02
1270  9.094E-03
1280  5.329E-03
1290  3.062E-03
1300  1.848E-03
1310  1.061E-03
1320  5.851E-04
1330  2.809E-04
1340  1.170E-04
1350  5.480E-05
1360  2.875E-05
1370  1.726E-05
1380  1.079E-05
1390  6.344E-06
1400  3.912E-06
1410  2.199E-06
1420  1.372E-06
1430  6.549E-07
1440  3.981E-07
1450  2.658E-07
