/absorption data for Si
/from Martin A. Green / Prog Photovolt Res Appl.30, 164–179 (2022)
/lambda[nm]	alfa[m^-1]
250  1.842E+08
260  1.977E+08
270  2.189E+08
280  2.381E+08
290  2.298E+08
300  1.768E+08
310  1.465E+08
320  1.300E+08
330  1.184E+08
340  1.104E+08
350  1.056E+08
360  1.036E+08
370  7.098E+07
380  3.014E+07
390  1.417E+07
400  9.303E+06
410  6.609E+06
420  5.006E+06
430  3.816E+06
440  3.016E+06
450  2.556E+06
460  2.128E+06
470  1.786E+06
480  1.513E+06
490  1.297E+06
500  1.116E+06
510  9.758E+05
520  8.645E+05
530  7.733E+05
540  6.950E+05
550  6.277E+05
560  5.711E+05
570  5.206E+05
580  4.771E+05
590  4.415E+05
600  4.058E+05
610  3.750E+05
620  3.473E+05
630  3.215E+05
640  2.978E+05
650  2.763E+05
660  2.564E+05
670  2.376E+05
680  2.202E+05
690  2.039E+05
700  1.886E+05
710  1.743E+05
720  1.610E+05
730  1.486E+05
740  1.370E+05
750  1.262E+05
760  1.160E+05
770  1.066E+05
780  9.772E+04
790  8.945E+04
800  8.171E+04
810  7.452E+04
820  6.784E+04
830  6.160E+04
840  5.582E+04
850  5.045E+04
860  4.547E+04
870  4.084E+04
880  3.656E+04
890  3.261E+04
900  2.897E+04
910  2.561E+04
920  2.254E+04
930  1.959E+04
940  1.714E+04
950  1.478E+04
960  1.260E+04
970  1.065E+04
980  8.933E+03
990  7.377E+03
1000  5.990E+03
1010  4.783E+03
1020  3.746E+03
1030  2.830E+03
1040  2.091E+03
1050  1.497E+03
1060  1.052E+03
1070  7.599E+02
1080  5.778E+02
1090  4.353E+02
1100  3.269E+02
1110  2.451E+02
1120  1.814E+02
1130  1.302E+02
1140  8.939E+01
1150  5.814E+01
1160  3.473E+01
1170  1.767E+01
1180  5.189E+00
1190  2.192E+00
1200  1.313E+00
1210  7.561E-01
1220  4.583E-01
1230  2.575E-01
1240  1.330E-01
1250  5.407E-02
1260  2.027E-02
1270  1.098E-02
1280  6.474E-03
1290  3.766E-03
1300  2.296E-03
1310  1.332E-03
1320  7.439E-04
1330  3.617E-04
1340  1.531E-04
1350  7.231E-05
1360  3.801E-05
1370  2.286E-05
1380  1.433E-05
1390  8.440E-06
1400  5.226E-06
1410  2.949E-06
1420  1.848E-06
1430  8.860E-07
1440  5.409E-07
1450  3.625E-07
