/absorption data for Si
/from Martin A. Green / Prog Photovolt Res Appl.30, 164–179 (2022)
/lambda[nm]	alfa[m^-1]
250  1.841E+08
260  1.975E+08
270  2.185E+08
280  2.376E+08
290  2.299E+08
300  1.771E+08
310  1.468E+08
320  1.301E+08
330  1.185E+08
340  1.104E+08
350  1.056E+08
360  1.035E+08
370  7.117E+07
380  3.031E+07
390  1.439E+07
400  9.491E+06
410  6.735E+06
420  5.095E+06
430  3.883E+06
440  3.068E+06
450  2.600E+06
460  2.166E+06
470  1.818E+06
480  1.541E+06
490  1.320E+06
500  1.137E+06
510  9.943E+05
520  8.814E+05
530  7.889E+05
540  7.090E+05
550  6.404E+05
560  5.830E+05
570  5.314E+05
580  4.870E+05
590  4.507E+05
600  4.143E+05
610  3.831E+05
620  3.547E+05
630  3.284E+05
640  3.042E+05
650  2.822E+05
660  2.619E+05
670  2.429E+05
680  2.251E+05
690  2.084E+05
700  1.929E+05
710  1.783E+05
720  1.647E+05
730  1.520E+05
740  1.401E+05
750  1.290E+05
760  1.186E+05
770  1.090E+05
780  9.994E+04
790  9.153E+04
800  8.372E+04
810  7.640E+04
820  6.959E+04
830  6.327E+04
840  5.737E+04
850  5.188E+04
860  4.678E+04
870  4.207E+04
880  3.771E+04
890  3.365E+04
900  2.993E+04
910  2.650E+04
920  2.333E+04
930  2.030E+04
940  1.779E+04
950  1.537E+04
960  1.314E+04
970  1.114E+04
980  9.365E+03
990  7.763E+03
1000  6.330E+03
1010  5.076E+03
1020  3.995E+03
1030  3.031E+03
1040  2.251E+03
1050  1.625E+03
1060  1.149E+03
1070  8.353E+02
1080  6.371E+02
1090  4.814E+02
1100  3.638E+02
1110  2.735E+02
1120  2.031E+02
1130  1.462E+02
1140  1.010E+02
1150  6.608E+01
1160  3.995E+01
1170  2.071E+01
1180  6.307E+00
1190  2.705E+00
1200  1.631E+00
1210  9.532E-01
1220  5.813E-01
1230  3.298E-01
1240  1.709E-01
1250  7.031E-02
1260  2.651E-02
1270  1.449E-02
1280  8.624E-03
1290  5.109E-03
1300  3.163E-03
1310  1.863E-03
1320  1.060E-03
1330  5.248E-04
1340  2.276E-04
1350  1.088E-04
1360  5.737E-05
1370  3.462E-05
1380  2.176E-05
1390  1.286E-05
1400  8.009E-06
1410  4.548E-06
1420  2.867E-06
1430  1.384E-06
1440  8.498E-07
1450  5.730E-07
